File: Verification/Pyrolysis/birch_tga_2_exp.csv
Temp,Mass
23.85012,1
26.85012,0.9973545
29.85012,0.997191
32.85012,0.9968857
35.85012,0.9962587
38.85012,0.9953708
41.85012,0.9940136
44.85012,0.9925427
47.85012,0.9908145
50.85012,0.9890998
53.85012,0.987313
56.85012,0.985458
59.85012,0.9837288
62.85012,0.9820497
65.85012,0.9804438
68.85012,0.978998
71.85012,0.9777878
74.85012,0.9767148
77.85012,0.9757807
80.85012,0.9750794
83.85012,0.9744909
86.85012,0.9739744
89.85012,0.9735895
92.85012,0.9732565
95.85012,0.9730593
98.85012,0.9728509
101.85,0.972745
104.85,0.9726642
107.85,0.9726566
110.85,0.9726155
113.85,0.9725739
116.85,0.9725865
119.85,0.9726146
122.85,0.9726445
125.85,0.9727506
128.85,0.9727396
131.85,0.9727271
134.85,0.9727624
137.85,0.9728697
140.85,0.9728714
143.85,0.9729114
146.85,0.9729965
149.85,0.9730193
152.85,0.9729866
155.85,0.9730059
158.85,0.9729961
161.85,0.9729879
164.85,0.9729218
167.85,0.972838
170.85,0.9727693
173.85,0.9726065
176.85,0.9724546
179.85,0.9723598
182.85,0.9721191
185.85,0.9719267
188.85,0.9716844
191.85,0.9713998
194.85,0.9710801
197.85,0.9707708
200.85,0.9703788
203.85,0.9698716
206.85,0.9693905
209.85,0.9687099
212.85,0.9679784
215.85,0.9670593
218.85,0.9660265
221.85,0.9647095
224.85,0.9631918
227.85,0.9614503
230.85,0.9593029
233.85,0.9568061
236.85,0.9539078
239.85,0.9504218
242.85,0.9461884
245.85,0.9410582
248.85,0.9349493
251.85,0.9276234
254.85,0.9189874
257.85,0.9091327
260.85,0.8980877
263.85,0.8861078
266.85,0.8732487
269.85,0.8599597
272.85,0.846249
275.85,0.8324105
278.85,0.8184438
281.85,0.8043601
284.85,0.7904646
287.85,0.7764733
290.85,0.762531
293.85,0.748481
296.85,0.7341927
299.85,0.7196938
302.85,0.7048632
305.85,0.6899238
308.85,0.6746419
311.85,0.6592705
314.85,0.6437301
317.85,0.6279031
320.85,0.6114887
323.85,0.5942573
326.85,0.5753204
329.85,0.5537648
332.85,0.5285367
335.85,0.4982475
338.85,0.4617146
341.85,0.4195058
344.85,0.3748887
347.85,0.3332904
350.85,0.3006491
353.85,0.2797211
356.85,0.2684787
359.85,0.2628086
362.85,0.2593378
365.85,0.2567271
368.85,0.2543635
371.85,0.2520264
374.85,0.2497832
377.85,0.2475275
380.85,0.2453243
383.85,0.2431043
386.85,0.2408977
389.85,0.2386961
392.85,0.2365312
395.85,0.2343754
398.85,0.2322622
401.85,0.2302254
404.85,0.2282911
407.85,0.2263297
410.85,0.2244693
413.85,0.2227511
416.85,0.2210706
419.85,0.2194666
422.85,0.2179317
425.85,0.216506
428.85,0.2151427
431.85,0.2138329
434.85,0.2126078
437.85,0.2114909
440.85,0.2104495
443.85,0.2093533
446.85,0.2083191
449.85,0.2073957
452.85,0.2064365
455.85,0.2055614
458.85,0.2047373
461.85,0.2038767
464.85,0.2030638
467.85,0.2022276
470.85,0.2014527
473.85,0.2006913
476.85,0.1999989
479.85,0.1991997
482.85,0.1985572
485.85,0.197858
488.85,0.1972103
491.85,0.1965298
494.85,0.1959296
497.85,0.1953706
500.85,0.1947002
503.85,0.1941432
506.85,0.193526
509.85,0.192871
512.85,0.1923936
515.85,0.1918166
518.85,0.1912728
521.85,0.1907844
524.85,0.1902401
527.85,0.189668
530.85,0.1891368
533.85,0.1886606
536.85,0.1880689
539.85,0.1876392
542.85,0.1872684
545.85,0.1867039
548.85,0.1862897
551.85,0.1858701
554.85,0.1853835
557.85,0.1849797
560.85,0.1845404
563.85,0.1842261
566.85,0.1837874
569.85,0.1833728
572.85,0.1829832
575.85,0.1826606
578.85,0.1823042
581.85,0.181882
584.85,0.1816172
587.85,0.1812528
590.85,0.1809698
593.85,0.1806714
596.85,0.1803403
599.85,0.1800672
602.85,0.1798017
605.85,0.1795613
608.85,0.1792545
611.85,0.1790052
614.85,0.1787977
617.85,0.1786157
620.85,0.1783753
623.85,0.1781602
626.85,0.1779257
629.85,0.177761
632.85,0.1775631
635.85,0.1773969
638.85,0.1772059
641.85,0.1770766
644.85,0.1769197
647.85,0.1767381
650.85,0.1765843
653.85,0.1764214
656.85,0.1762394
659.85,0.1761524
662.85,0.1759573
665.85,0.1758504
668.85,0.1755968
671.85,0.1753675
674.85,0.1752701
677.85,0.1751285
680.85,0.1749852
683.85,0.1747964
686.85,0.1746784
689.85,0.1745382
692.85,0.1743308
695.85,0.1742478
698.85,0.1740572
701.85,0.1739323
704.85,0.1737997
707.85,0.1736312
710.85,0.1735085
713.85,0.1733684
716.85,0.1732373
719.85,0.1730619
722.85,0.1728954
725.85,0.1727545
728.85,0.1726398
731.85,0.172454
734.85,0.1722761
737.85,0.1721157
740.85,0.1720078
743.85,0.1718468
746.85,0.1716833
749.85,0.171587
752.85,0.1714456
755.85,0.1713111
758.85,0.171158
761.85,0.1710536
764.85,0.1709445
767.85,0.1707719
770.85,0.1706137
773.85,0.1705466
776.85,0.1704354
779.85,0.1703038
782.85,0.1701573
785.85,0.1700761
788.85,0.1699598
791.85,0.1698251
794.85,0.1697315
797.85,0.1696244