File: Verification/Pyrolysis/birch_tga_20_exp.csv
Temp,Mass
20.05544,1
23.05544,0.9997926
26.05544,0.9996524
29.05544,0.9994039
32.05544,0.9992849
35.05544,0.9990855
38.05544,0.9988363
41.05544,0.9987066
44.05544,0.9986136
47.05544,0.9984106
50.05544,0.9982331
53.05544,0.9979809
56.05544,0.9977038
59.05544,0.9973408
62.05544,0.9969454
65.05544,0.9966162
68.05544,0.996079
71.05544,0.9954689
74.05544,0.9948123
77.05544,0.9941869
80.05544,0.9946349
83.05544,0.992888
86.05544,0.9921359
89.05544,0.9913063
92.05544,0.9905158
95.05544,0.9897381
98.05544,0.9889123
101.055,0.9881966
104.055,0.9874822
107.055,0.9868598
110.055,0.9863416
113.055,0.9858315
116.055,0.9854169
119.055,0.9850944
122.055,0.9848447
125.055,0.984674
128.055,0.984549
131.055,0.9843978
134.055,0.984259
137.055,0.9841159
140.055,0.9840452
143.055,0.9840355
146.055,0.9839938
149.055,0.9839459
152.055,0.9838716
155.055,0.9838139
158.055,0.9837563
161.055,0.9837056
164.055,0.9836502
167.055,0.9835849
170.055,0.9835454
173.055,0.983465
176.055,0.9833592
179.055,0.9832943
182.055,0.9832386
185.055,0.9831032
188.055,0.9829622
191.055,0.9828431
194.055,0.9826781
197.055,0.9824686
200.055,0.9822769
203.055,0.9820028
206.055,0.9818187
209.055,0.9814741
212.055,0.9811955
215.055,0.9807777
218.055,0.9804679
221.055,0.9800411
224.055,0.9795868
227.055,0.9790877
230.055,0.9785541
233.055,0.9779516
236.055,0.9772622
239.055,0.9764599
242.055,0.9755144
245.055,0.9744157
248.055,0.9731571
251.055,0.9715708
254.055,0.9697477
257.055,0.9679057
260.055,0.9656434
263.055,0.9631077
266.055,0.9602041
269.055,0.956896
272.055,0.9530194
275.055,0.9470575
278.055,0.9421431
281.055,0.9354559
284.055,0.9274604
287.055,0.9186694
290.055,0.907515
293.055,0.8976687
296.055,0.884764
299.055,0.8723404
302.055,0.858811
305.055,0.8453474
308.055,0.8303837
311.055,0.8161546
314.055,0.8015828
317.055,0.7870972
320.055,0.7720817
323.055,0.7577873
326.055,0.7433508
329.055,0.7283317
332.055,0.7141262
335.055,0.699708
338.055,0.6851621
341.055,0.6706496
344.055,0.6557676
347.055,0.6408267
350.055,0.6258283
353.055,0.6097015
356.055,0.5930248
359.055,0.5751748
362.055,0.5555542
365.055,0.5335889
368.055,0.5091155
371.055,0.4821107
374.055,0.4521793
377.055,0.4204982
380.055,0.3872846
383.055,0.3541243
386.055,0.3229838
389.055,0.2957107
392.055,0.2746072
395.055,0.2592546
398.055,0.2516341
401.055,0.245079
404.055,0.2425062
407.055,0.2398578
410.055,0.237353
413.055,0.2351285
416.055,0.2329407
419.055,0.2308324
422.055,0.2287195
425.055,0.2266612
428.055,0.2247035
431.055,0.2228913
434.055,0.2210467
437.055,0.2192074
440.055,0.2174434
443.055,0.2157189
446.055,0.2140102
449.055,0.2124752
452.055,0.2110056
455.055,0.209522
458.055,0.2081826
461.055,0.2068441
464.055,0.2055931
467.055,0.2043954
470.055,0.2033026
473.055,0.2021919
476.055,0.2012239
479.055,0.2002539
482.055,0.1993226
485.055,0.1984549
488.055,0.197545
491.055,0.1967021
494.055,0.1959112
497.055,0.1951121
500.055,0.1943739
503.055,0.1936357
506.055,0.192933
509.055,0.1922011
512.055,0.1915564
515.055,0.1908494
518.055,0.1902152
521.055,0.1895176
524.055,0.1889362
527.055,0.188331
530.055,0.1877275
533.055,0.187133
536.055,0.186544
539.055,0.1859179
542.055,0.1853299
545.055,0.1847885
548.055,0.1842698
551.055,0.1837537
554.055,0.1831914
557.055,0.182691
560.055,0.1821533
563.055,0.1816591
566.055,0.1812003
569.055,0.1807224
572.055,0.1802689
575.055,0.1797863
578.055,0.1793386
581.055,0.1788955
584.055,0.178432
587.055,0.1779951
590.055,0.1775672
593.055,0.1771226
596.055,0.176698
599.055,0.1762869
602.055,0.1759122
605.055,0.1754972
608.055,0.1751051
611.055,0.1747448
614.055,0.1743937
617.055,0.174018
620.055,0.1736993
623.055,0.1733812
626.055,0.1730717
629.055,0.1727497
632.055,0.1724175
635.055,0.1721146
638.055,0.1717773
641.055,0.1714619
644.055,0.1712127
647.055,0.1709598
650.055,0.1706874
653.055,0.1704663
656.055,0.1702289
659.055,0.169974
662.055,0.1697526
665.055,0.1695943
668.055,0.1693593
671.055,0.1691448
674.055,0.1689662
677.055,0.168751
680.055,0.1685624
683.055,0.168406
686.055,0.16825
689.055,0.1680451
692.055,0.1678478
695.055,0.1677412
698.055,0.1675128
701.055,0.167408
704.055,0.1672478
707.055,0.1670998
710.055,0.1669178
713.055,0.1667659
716.055,0.1665864
719.055,0.166366
722.055,0.1662467
725.055,0.1660739
728.055,0.165959
731.055,0.1657767
734.055,0.1656935
737.055,0.1655372
740.055,0.1653656
743.055,0.1652292
746.055,0.165073
749.055,0.1649469
752.055,0.1647899
755.055,0.1646624
758.055,0.1645532
761.055,0.1644583
764.055,0.1643725
767.055,0.1642289
770.055,0.1640988
773.055,0.1640311
776.055,0.1638592
779.055,0.1637421
782.055,0.1636473
785.055,0.1634747
788.055,0.163335
791.055,0.1632178
794.055,0.1630619
796.055,0.1629628