File: Verification/Pyrolysis/tga_analysis_exact.csv
s,C,g/g,g/g,g/g,g/g,g/g,1/s,1/s,1/s,1/s,1/s,W/g,W/g
Time,Temp,Total Mass,dry wood Mass,water Mass,char Mass,ash Mass,Total MLR, dry wood MLR, water MLR, char MLR, ash MLR,MCC,DSC
0.0000e+00,2.0000e+01,1.0000e+00,9.0000e-01,1.0000e-01,0.0000e+00,0.0000e+00,0.0000e+00,0.0000e+00,0.0000e+00,0.0000e+00,0.0000e+00,0.0000e+00,0.0000e+00
9.6000e+01,2.8000e+01,9.9659e-01,9.0000e-01,9.6592e-02,4.1200e-17,0.0000e+00,4.0833e-05,0.0000e+00,0.0000e+00,4.0833e-05,0.0000e+00,0.0000e+00,2.1719e-01
1.9200e+02,3.6000e+01,9.9209e-01,9.0000e-01,9.2086e-02,4.1200e-17,0.0000e+00,5.3212e-05,0.0000e+00,0.0000e+00,5.3212e-05,0.0000e+00,0.0000e+00,2.4758e-01
2.8800e+02,4.4000e+01,9.8631e-01,9.0000e-01,8.6313e-02,4.1200e-17,0.0000e+00,6.7112e-05,0.0000e+00,0.0000e+00,6.7112e-05,0.0000e+00,0.0000e+00,2.8109e-01
3.8400e+02,5.2000e+01,9.7917e-01,9.0000e-01,7.9166e-02,1.6480e-16,-6.1800e-18,8.1632e-05,0.0000e+00,2.2870e-32,8.1632e-05,0.0000e+00,0.0000e+00,3.1525e-01
4.8000e+02,6.0000e+01,9.7065e-01,9.0000e-01,7.0651e-02,2.0600e-16,-6.1800e-18,9.5319e-05,0.0000e+00,0.0000e+00,9.5319e-05,0.0000e+00,0.0000e+00,3.4628e-01
5.7600e+02,6.8000e+01,9.6094e-01,9.0000e-01,6.0941e-02,2.4720e-16,-6.1800e-18,1.0624e-04,0.0000e+00,0.0000e+00,1.0624e-04,0.0000e+00,0.0000e+00,3.6928e-01
6.7200e+02,7.6000e+01,9.5040e-01,9.0000e-01,5.0404e-02,4.1200e-16,-6.1800e-18,1.1222e-04,0.0000e+00,0.0000e+00,1.1222e-04,0.0000e+00,0.0000e+00,3.7903e-01
7.6800e+02,8.4000e+01,9.3961e-01,9.0000e-01,3.9610e-02,5.3560e-16,-6.1800e-18,1.1142e-04,0.0000e+00,0.0000e+00,1.1142e-04,0.0000e+00,0.0000e+00,3.7127e-01
8.6400e+02,9.2000e+01,9.2926e-01,9.0000e-01,2.9263e-02,1.4832e-15,-6.1800e-18,1.0295e-04,1.0300e-16,-4.1200e-17,1.0295e-04,0.0000e+00,9.2627e-13,3.4440e-01
9.6000e+02,1.0000e+02,9.2008e-01,9.0000e-01,2.0080e-02,1.0135e-14,-6.1800e-18,8.7523e-05,5.1500e-16,-2.0600e-16,8.7523e-05,0.0000e+00,4.6314e-12,3.0083e-01
1.0560e+03,1.0800e+02,9.1262e-01,9.0000e-01,1.2623e-02,6.2582e-14,-6.1800e-18,6.7569e-05,2.8840e-15,-1.1536e-15,6.7569e-05,0.0000e+00,2.5936e-11,2.4715e-01
1.1520e+03,1.1600e+02,9.0716e-01,9.0000e-01,7.1576e-03,3.5835e-13,-6.1800e-18,4.6667e-05,1.5862e-14,-6.3448e-15,4.6667e-05,0.0000e+00,1.4265e-10,1.9254e-01
1.2480e+03,1.2400e+02,9.0360e-01,9.0000e-01,3.5980e-03,1.9146e-12,-6.1800e-18,2.8354e-05,8.1163e-14,-3.2465e-14,2.8354e-05,0.0000e+00,7.2990e-10,1.4566e-01
1.3440e+03,1.3200e+02,9.0157e-01,9.0000e-01,1.5728e-03,9.5842e-12,-6.1800e-18,1.4872e-05,3.9098e-13,-1.5639e-13,1.4872e-05,0.0000e+00,3.5161e-09,1.1169e-01
1.4400e+03,1.4000e+02,9.0059e-01,9.0000e-01,5.8519e-04,4.5107e-11,-6.1800e-18,6.5954e-06,1.7710e-12,-7.0839e-13,6.5954e-06,0.0000e+00,1.5926e-08,9.1118e-02
1.5360e+03,1.4800e+02,9.0018e-01,9.0000e-01,1.8102e-04,2.0031e-10,-6.1800e-18,2.4163e-06,7.5743e-12,-3.0297e-12,2.4163e-06,0.0000e+00,6.8115e-08,8.0851e-02
1.6320e+03,1.5600e+02,9.0005e-01,9.0000e-01,4.5371e-05,8.4198e-10,-6.1800e-18,7.1302e-07,3.0685e-11,-1.2274e-11,7.1300e-07,0.0000e+00,2.7595e-07,7.6711e-02
1.7280e+03,1.6400e+02,9.0001e-01,9.0000e-01,8.9581e-06,3.3602e-09,-6.1800e-18,1.6488e-07,1.1811e-10,-4.7242e-11,1.6481e-07,0.0000e+00,1.0621e-06,7.5392e-02
1.8240e+03,1.7200e+02,9.0000e-01,9.0000e-01,1.3514e-06,1.2768e-08,-6.1800e-18,2.9215e-08,4.3308e-10,-1.7323e-10,2.8956e-08,0.0000e+00,3.8947e-06,7.5069e-02
1.9200e+03,1.8000e+02,9.0000e-01,9.0000e-01,1.5068e-07,4.6307e-08,-6.1800e-18,4.6518e-09,1.5169e-09,-6.0674e-10,3.7417e-09,0.0000e+00,1.3641e-05,7.5010e-02
2.0160e+03,1.8800e+02,9.0000e-01,9.0000e-01,1.1982e-08,1.6070e-07,-6.1800e-18,3.3952e-09,5.0866e-09,-2.0346e-09,3.4324e-10,0.0000e+00,4.5744e-05,7.5006e-02
2.1120e+03,1.9600e+02,9.0000e-01,9.0000e-01,6.5392e-10,5.3484e-07,-6.1800e-18,9.8421e-09,1.6368e-08,-6.5470e-09,2.1516e-11,0.0000e+00,1.4719e-04,7.5015e-02
2.2080e+03,2.0400e+02,9.0000e-01,9.0000e-01,2.3500e-11,1.7106e-06,-6.1800e-18,3.0387e-08,5.0643e-08,-2.0257e-08,8.8452e-13,0.0000e+00,4.5543e-04,7.5048e-02
2.3040e+03,2.1200e+02,8.9999e-01,8.9999e-01,5.3210e-13,5.2682e-06,-6.1800e-18,9.0578e-08,1.5096e-07,-6.0385e-08,2.2823e-14,0.0000e+00,1.3576e-03,7.5143e-02
2.4000e+03,2.2000e+02,8.9998e-01,8.9996e-01,7.2402e-15,1.5651e-05,-6.1800e-18,2.6060e-07,4.3433e-07,-1.7373e-07,3.5264e-16,0.0000e+00,3.9059e-03,7.5412e-02
2.4960e+03,2.2800e+02,8.9993e-01,8.9989e-01,5.6296e-17,4.4929e-05,-6.1800e-18,7.2484e-07,1.2081e-06,-4.8323e-07,3.1031e-18,0.0000e+00,1.0864e-02,7.6151e-02
2.5920e+03,2.3600e+02,8.9981e-01,8.9969e-01,2.3707e-19,1.2482e-04,-6.1274e-18,1.9521e-06,3.2534e-06,-1.3014e-06,1.4743e-20,-4.1141e-21,2.9258e-02,7.8111e-02
2.6880e+03,2.4400e+02,8.9950e-01,8.9916e-01,5.1073e-22,3.3610e-04,-4.8966e-18,5.0964e-06,8.4940e-06,-3.3976e-06,3.5730e-23,-3.8784e-20,7.6387e-02,8.3155e-02
2.7840e+03,2.5200e+02,8.9868e-01,8.9780e-01,5.2979e-25,8.7806e-04,1.4109e-17,1.2910e-05,2.1517e-05,-8.6068e-06,4.1581e-26,-5.6469e-19,1.9350e-01,9.5739e-02
2.8800e+03,2.6000e+02,8.9666e-01,8.9443e-01,2.4815e-28,2.2272e-03,2.9289e-16,3.1732e-05,5.2887e-05,-2.1155e-05,2.1795e-29,-8.1191e-18,4.7561e-01,1.2617e-01
2.9760e+03,2.6800e+02,8.9178e-01,8.8629e-01,4.9027e-32,5.4833e-03,4.0563e-15,7.5535e-05,1.2589e-04,-5.0357e-05,4.8074e-33,-1.0731e-16,1.1321e+00,1.9729e-01
3.0720e+03,2.7600e+02,8.8039e-01,8.6732e-01,3.8011e-36,1.3073e-02,5.0946e-14,1.7311e-04,2.8852e-04,-1.1541e-04,4.1521e-37,-1.3044e-15,2.5947e+00,3.5633e-01
3.1680e+03,2.8400e+02,8.5503e-01,8.2505e-01,1.0713e-40,2.9982e-02,5.8857e-13,3.7644e-04,6.2740e-04,-2.5096e-04,1.3011e-41,-1.4555e-14,5.6422e+00,6.8905e-01
3.2640e+03,2.9200e+02,8.0227e-01,7.3712e-01,1.0121e-45,6.5152e-02,6.2054e-12,7.5142e-04,1.2524e-03,-5.0095e-04,1.3642e-46,-1.4720e-13,1.1263e+01,1.3050e+00
3.3600e+03,3.0000e+02,7.0496e-01,5.7493e-01,2.9418e-51,1.3003e-01,5.8466e-11,1.2818e-03,2.1363e-03,-8.5453e-04,4.3930e-52,-1.3104e-12,1.9212e+01,2.1792e+00
3.4560e+03,3.0800e+02,5.6171e-01,3.3618e-01,2.4015e-57,2.2553e-01,4.7296e-10,1.6079e-03,2.6799e-03,-1.0719e-03,3.9674e-58,-9.7361e-12,2.4100e+01,2.7173e+00
3.5520e+03,3.1600e+02,4.2473e-01,1.0788e-01,0.0000e+00,3.1685e-01,3.1025e-09,1.0893e-03,1.8155e-03,-7.2619e-04,0.0000e+00,-5.6363e-11,1.6327e+01,1.8517e+00
3.6480e+03,3.2400e+02,3.6607e-01,1.0109e-02,0.0000e+00,3.5596e-01,1.5934e-08,2.1319e-04,3.5532e-04,-1.4212e-04,0.0000e+00,-2.5107e-10,3.1954e+00,3.8738e-01
3.7440e+03,3.3200e+02,3.6005e-01,7.7528e-05,0.0000e+00,3.5997e-01,6.7622e-08,3.4182e-06,5.6878e-06,-2.2687e-06,0.0000e+00,-9.6933e-10,5.1233e-02,3.5745e-02
3.8400e+03,3.4000e+02,3.6000e-01,3.6190e-09,0.0000e+00,3.6000e-01,2.6105e-07,2.0583e-08,5.6530e-10,2.3590e-08,0.0000e+00,-3.5724e-09,3.0851e-04,3.0023e-02
3.9360e+03,3.4800e+02,3.5999e-01,3.8968e-18,0.0000e+00,3.5999e-01,9.5932e-07,7.2136e-08,1.3862e-18,8.4865e-08,0.0000e+00,-1.2730e-08,1.0812e-03,3.0080e-02
4.0320e+03,3.5600e+02,3.5998e-01,1.0550e-37,0.0000e+00,3.5998e-01,3.3989e-06,2.4886e-07,1.0596e-37,2.9278e-07,0.0000e+00,-4.3917e-08,3.7300e-03,3.0276e-02
4.1280e+03,3.6400e+02,3.5993e-01,0.0000e+00,0.0000e+00,3.5992e-01,1.1657e-05,8.3217e-07,0.0000e+00,9.7902e-07,0.0000e+00,-1.4685e-07,1.2473e-02,3.0928e-02
4.2240e+03,3.7200e+02,3.5978e-01,0.0000e+00,0.0000e+00,3.5974e-01,3.8771e-05,2.6997e-06,0.0000e+00,3.1761e-06,0.0000e+00,-4.7641e-07,4.0464e-02,3.3029e-02
4.3200e+03,3.8000e+02,3.5929e-01,0.0000e+00,0.0000e+00,3.5917e-01,1.2517e-04,8.4998e-06,0.0000e+00,9.9998e-06,0.0000e+00,-1.5000e-06,1.2740e-01,3.9591e-02
4.4160e+03,3.8800e+02,3.5778e-01,0.0000e+00,0.0000e+00,3.5739e-01,3.9224e-04,2.5941e-05,0.0000e+00,3.0519e-05,0.0000e+00,-4.5779e-06,3.8882e-01,5.9438e-02
4.5120e+03,3.9600e+02,3.5325e-01,0.0000e+00,0.0000e+00,3.5206e-01,1.1903e-03,7.6318e-05,0.0000e+00,8.9785e-05,0.0000e+00,-1.3468e-05,1.1439e+00,1.1709e-01
4.6080e+03,4.0400e+02,3.4034e-01,0.0000e+00,0.0000e+00,3.3687e-01,3.4691e-03,2.1258e-04,0.0000e+00,2.5010e-04,0.0000e+00,-3.7515e-05,3.1863e+00,2.7391e-01
4.7040e+03,4.1200e+02,3.0631e-01,0.0000e+00,0.0000e+00,2.9684e-01,9.4743e-03,5.3234e-04,0.0000e+00,6.2629e-04,0.0000e+00,-9.3943e-05,7.9789e+00,6.4391e-01
4.8000e+03,4.2000e+02,2.3102e-01,0.0000e+00,0.0000e+00,2.0825e-01,2.2762e-02,1.0386e-03,0.0000e+00,1.2219e-03,0.0000e+00,-1.8328e-04,1.5567e+01,1.2325e+00
4.8960e+03,4.2800e+02,1.2098e-01,0.0000e+00,0.0000e+00,7.8795e-02,4.2181e-02,1.0744e-03,0.0000e+00,1.2640e-03,0.0000e+00,-1.8961e-04,1.6104e+01,1.2723e+00
4.9920e+03,4.3600e+02,5.8875e-02,0.0000e+00,0.0000e+00,5.7351e-03,5.3140e-02,2.1259e-04,0.0000e+00,2.5011e-04,0.0000e+00,-3.7516e-05,3.1864e+00,2.5605e-01
5.0880e+03,4.4400e+02,5.4004e-02,0.0000e+00,0.0000e+00,5.1439e-06,5.3999e-02,5.3061e-07,0.0000e+00,6.2425e-07,0.0000e+00,-9.3637e-08,7.9530e-03,5.1307e-03
5.1840e+03,4.5200e+02,5.4000e-02,0.0000e+00,0.0000e+00,2.3739e-14,5.4000e-02,7.6343e-15,0.0000e+00,8.9797e-15,0.0000e+00,-1.3454e-15,1.1440e-10,4.5000e-03
5.2800e+03,4.6000e+02,5.4000e-02,0.0000e+00,0.0000e+00,2.2922e-40,5.4000e-02,4.9161e-40,0.0000e+00,4.9161e-40,0.0000e+00,0.0000e+00,6.2632e-36,4.5000e-03
5.3760e+03,4.6800e+02,5.4000e-02,0.0000e+00,0.0000e+00,0.0000e+00,5.4000e-02,0.0000e+00,0.0000e+00,0.0000e+00,0.0000e+00,0.0000e+00,0.0000e+00,4.5000e-03
5.4720e+03,4.7600e+02,5.4000e-02,0.0000e+00,0.0000e+00,0.0000e+00,5.4000e-02,0.0000e+00,0.0000e+00,0.0000e+00,0.0000e+00,0.0000e+00,0.0000e+00,4.5000e-03
5.5680e+03,4.8400e+02,5.4000e-02,0.0000e+00,0.0000e+00,0.0000e+00,5.4000e-02,0.0000e+00,0.0000e+00,0.0000e+00,0.0000e+00,0.0000e+00,0.0000e+00,4.5000e-03
5.6640e+03,4.9200e+02,5.4000e-02,0.0000e+00,0.0000e+00,0.0000e+00,5.4000e-02,0.0000e+00,0.0000e+00,0.0000e+00,0.0000e+00,0.0000e+00,0.0000e+00,4.5000e-03
5.7600e+03,5.0000e+02,5.4000e-02,0.0000e+00,0.0000e+00,0.0000e+00,5.4000e-02,0.0000e+00,0.0000e+00,0.0000e+00,0.0000e+00,0.0000e+00,0.0000e+00,4.5000e-03
5.8560e+03,5.0800e+02,5.4000e-02,0.0000e+00,0.0000e+00,0.0000e+00,5.4000e-02,0.0000e+00,0.0000e+00,0.0000e+00,0.0000e+00,0.0000e+00,0.0000e+00,4.5000e-03
5.9520e+03,5.1600e+02,5.4000e-02,0.0000e+00,0.0000e+00,0.0000e+00,5.4000e-02,0.0000e+00,0.0000e+00,0.0000e+00,0.0000e+00,0.0000e+00,0.0000e+00,4.5000e-03
6.0480e+03,5.2400e+02,5.4000e-02,0.0000e+00,0.0000e+00,0.0000e+00,5.4000e-02,0.0000e+00,0.0000e+00,0.0000e+00,0.0000e+00,0.0000e+00,0.0000e+00,4.5000e-03
6.0840e+03,5.2700e+02,5.4000e-02,0.0000e+00,0.0000e+00,0.0000e+00,5.4000e-02,0.0000e+00,0.0000e+00,0.0000e+00,0.0000e+00,0.0000e+00,0.0000e+00,4.5000e-03